 *  Header:   lsnudge_time1 (s)   lsnudge_time2 (s)
                     0.0                1.0e30 
 *  Profile.   Note: values will be ignored if nudging for that variable is off.
 *    z (m)   theta (K)    qv (g/kg)  u (m/s, grnd-reltv) v (m/s, grnd-reltv)
      10.0000     300.0500   20.475023      40.0000      -0.0000
      30.0000     300.1500   20.404547      40.0000      -0.0000
      50.0000     300.2500   20.334156      40.0000      -0.0000
      70.0000     300.3500   20.263897      40.0000      -0.0000
      90.0000     300.4500   20.193743      40.0000      -0.0000
     110.0000     300.5500   20.123697      40.0000      -0.0000
     130.0000     300.6500   20.053730      40.0000      -0.0000
     150.0000     300.7500   19.983843      40.0000      -0.0000
     170.0000     300.8500   19.914127      40.0000      -0.0000
     190.0000     300.9500   19.844481      40.0000      -0.0000
     210.0000     301.0500   19.774944      40.0000      -0.0000
     230.0000     301.1500   19.705559      40.0000      -0.0000
     250.0000     301.2500   19.636190      40.0000      -0.0000
     270.0000     301.3500   19.566986      40.0000      -0.0000
     290.0000     301.4500   19.497900      40.0000      -0.0000
     310.0000     301.5500   19.428885      40.0000      -0.0000
     330.0000     301.6500   19.360016      40.0000      -0.0000
     350.0000     301.7500   19.291172      40.0000      -0.0000
     370.0000     301.8500   19.222530      40.0000      -0.0000
     390.0000     301.9500   19.153973      40.0000      -0.0000
     410.0000     302.0500   19.085485      40.0000      -0.0000
     430.0000     302.1500   19.017183      40.0000      -0.0000
     450.0000     302.2500   18.948914      40.0000      -0.0000
     470.0000     302.3500   18.880772      40.0000      -0.0000
     490.0000     302.4500   18.812819      40.0000      -0.0000
     510.0000     302.5500   18.744875      40.0000      -0.0000
     530.0000     302.6500   18.677114      40.0000      -0.0000
     550.0000     302.7500   18.609386      40.0000      -0.0000
     570.0000     302.8500   18.541853      40.0000      -0.0000
     590.0000     302.9500   18.474415      40.0000      -0.0000
     610.0000     303.0500   18.407055      40.0000      -0.0000
     630.0000     303.1500   18.339846      40.0000      -0.0000
     650.0000     303.2500   18.272701      40.0000      -0.0000
     670.0000     303.3500   18.205729      40.0000      -0.0000
     690.0000     303.4500   18.138842      40.0000      -0.0000
     710.0000     303.5500   18.072071      40.0000      -0.0000
     730.0000     303.6500   18.005421      40.0000      -0.0000
     750.0000     303.7500   17.938869      40.0000      -0.0000
     770.0000     303.8500   17.872461      40.0000      -0.0000
     790.0000     303.9500   17.806168      40.0000      -0.0000
     810.0000     304.0500   17.739965      40.0000      -0.0000
     830.0000     304.1500   17.673948      40.0000      -0.0000
     850.0000     304.2500   17.607937      40.0000      -0.0000
     870.0000     304.3500   17.542128      40.0000      -0.0000
     890.0000     304.4500   17.476440      40.0000      -0.0000
     910.0000     304.5500   17.410845      40.0000      -0.0000
     930.0000     304.6500   17.345371      40.0000      -0.0000
     950.0000     304.7500   17.279968      40.0000      -0.0000
     970.0000     304.8500   17.214771      40.0000      -0.0000
     990.0000     304.9500   17.149664      40.0000      -0.0000
    1010.0000     305.0500   17.084652      40.0000      -0.0000
    1030.0000     305.1500   17.019793      40.0000      -0.0000
    1050.0000     305.2500   16.955008      40.0000      -0.0000
    1070.0000     305.3500   16.890396      40.0000      -0.0000
    1090.0000     305.4500   16.825905      40.0000      -0.0000
    1110.0000     305.5500   16.761480      40.0000      -0.0000
    1130.0000     305.6500   16.697250      40.0000      -0.0000
    1150.0000     305.7500   16.633057      40.0000      -0.0000
    1170.0000     305.8500   16.569036      40.0000      -0.0000
    1190.0000     305.9500   16.505178      40.0000      -0.0000
    1210.0000     306.0500   16.441383      40.0000      -0.0000
    1230.0000     306.1500   16.377745      40.0000      -0.0000
    1250.0000     306.2500   16.314184      40.0000      -0.0000
    1270.0000     306.3500   16.250795      40.0000      -0.0000
    1290.0000     306.4500   16.187513      40.0000      -0.0000
    1310.0000     306.5500   16.124350      40.0000      -0.0000
    1330.0000     306.6500   16.061346      40.0000      -0.0000
    1350.0000     306.7500   15.998391      40.0000      -0.0000
    1370.0000     306.8500   15.935650      40.0000      -0.0000
    1390.0000     306.9500   15.873000      40.0000      -0.0000
    1410.0000     307.0500   15.810478      40.0000      -0.0000
    1430.0000     307.1500   15.748087      40.0000      -0.0000
    1450.0000     307.2500   15.685780      40.0000      -0.0000
    1470.0000     307.3500   15.623648      40.0000      -0.0000
    1490.0000     307.4500   15.561646      40.0000      -0.0000
    1510.0000     307.5500   15.499743      40.0000      -0.0000
    1530.0000     307.6500   15.438000      40.0000      -0.0000
    1550.0000     307.7500   15.376312      40.0000      -0.0000
    1570.0000     307.8500   15.314830      40.0000      -0.0000
    1590.0000     307.9500   15.253480      40.0000      -0.0000
    1610.0000     308.0500   15.192231      40.0000      -0.0000
    1630.0000     308.1500   15.131115      40.0000      -0.0000
    1650.0000     308.2500   15.070084      40.0000      -0.0000
    1670.0000     308.3500   15.009254      40.0000      -0.0000
    1690.0000     308.4500   14.948530      40.0000      -0.0000
    1710.0000     308.5500   14.887912      40.0000      -0.0000
    1730.0000     308.6500   14.827453      40.0000      -0.0000
    1750.0000     308.7500   14.767082      40.0000      -0.0000
    1770.0000     308.8500   14.706890      40.0000      -0.0000
    1790.0000     308.9500   14.646829      40.0000      -0.0000
    1810.0000     309.0500   14.586878      40.0000      -0.0000
    1830.0000     309.1500   14.527081      40.0000      -0.0000
    1850.0000     309.2500   14.467350      40.0000      -0.0000
    1870.0000     309.3500   14.407825      40.0000      -0.0000
    1890.0000     309.4500   14.348407      40.0000      -0.0000
    1910.0000     309.5500   14.289118      40.0000      -0.0000
    1930.0000     309.6500   14.229963      40.0000      -0.0000
    1950.0000     309.7500   14.170906      40.0000      -0.0000
    1970.0000     309.8500   14.112052      40.0000      -0.0000
    1990.0000     309.9500   14.053235      40.0000      -0.0000
    2010.0000     310.0500   13.994662      40.0000      -0.0000
    2030.5555     310.1528   13.934554      40.0000      -0.0000
    2052.2222     310.2611   13.871375      40.0000      -0.0000
    2075.0000     310.3750   13.805067      40.0000      -0.0000
    2098.8889     310.4944   13.735739      40.0000      -0.0000
    2123.8889     310.6194   13.663391      40.0000      -0.0000
    2150.0000     310.7500   13.588059      40.0000      -0.0000
    2177.2222     310.8861   13.509748      40.0000      -0.0000
    2205.5557     311.0278   13.428514      40.0000      -0.0000
    2235.0000     311.1750   13.344416      40.0000      -0.0000
    2265.5557     311.3278   13.257410      40.0000      -0.0000
    2297.2222     311.4861   13.167596      40.0000      -0.0000
    2330.0000     311.6500   13.075006      40.0000      -0.0000
    2363.8889     311.8195   12.979632      40.0000      -0.0000
    2398.8889     311.9944   12.881557      40.0000      -0.0000
    2435.0000     312.1750   12.780815      40.0000      -0.0000
    2472.2222     312.3611   12.677414      40.0000      -0.0000
    2510.5557     312.5528   12.571453      40.0000      -0.0000
    2550.0000     312.7500   12.462942      40.0000      -0.0000
    2590.5557     312.9528   12.351931      40.0000      -0.0000
    2632.2222     313.1611   12.238488      40.0000      -0.0000
    2675.0000     313.3750   12.122639      40.0000      -0.0000
    2718.8889     313.5945   12.004438      40.0000      -0.0000
    2763.8889     313.8195   11.883903      40.0000      -0.0000
    2810.0000     314.0500   11.761171      40.0000      -0.0000
    2857.2222     314.2861   11.636247      40.0000      -0.0000
    2905.5557     314.5278   11.509177      40.0000      -0.0000
    2955.0000     314.7750   11.380035      40.0000      -0.0000
    2980.0000     314.9000   11.315064      40.0000      -0.0000
